f [MHz];Pin.(dBm);NI-dacq(Vdc)
61;8;9.65
61;-0.01;9.05
61;-10.03;8.3
61;-20.03;7.5
61;-30.04;6.75
61.50  ;8;9.65
61.50  ;-0.01;9.05
61.50  ;-10.03;8.27
61.50  ;-20.02;7.5
61.50  ;-30.04;6.72
62.00  ;8.01;9.63
62.00  ;0.01;9.04
62.00  ;-10.04;8.26
62.00  ;-20.02;7.48
62.00  ;-30.03;6.72
62.50  ;8;9.63
62.50  ;0.00;9.02
62.50  ;-10.03;8.26
62.50  ;-20.02;7.47
62.50  ;-30.05;6.71
63.00  ;8.01;9.62
63.00  ;-0.02;9.01
63.00  ;-10.03;8.25
63.00  ;-20.02;7.46
63.00  ;-30.05;6.7
